#                NUMBER DENSITIES          MASS DENSITY  TEMPERATURE
#    H/KM     O/cm-3    N2/cm-3    O2/cm-3   m/g*cm-3     TN/K TEXO/K
     0.0   0.000E+00  2.120E+19  5.687E+18  1.304E-03   272.1  1037
     2.0   0.000E+00  1.697E+19  4.551E+18  1.044E-03   263.6  1037
     4.0   0.000E+00  1.373E+19  3.684E+18  8.449E-04   249.6  1037
     6.0   0.000E+00  1.101E+19  2.953E+18  6.773E-04   234.8  1037
     8.0   0.000E+00  8.615E+18  2.311E+18  5.300E-04   222.6  1037
    10.0   0.000E+00  6.531E+18  1.752E+18  4.018E-04   214.9  1037
    12.0   0.000E+00  4.801E+18  1.288E+18  2.954E-04   212.4  1037
    14.0   0.000E+00  3.485E+18  9.348E+17  2.144E-04   212.4  1037
    16.0   0.000E+00  2.539E+18  6.811E+17  1.562E-04   211.5  1037
    18.0   0.000E+00  1.859E+18  4.988E+17  1.144E-04   209.1  1037
    20.0   0.000E+00  1.356E+18  3.638E+17  8.344E-05   206.7  1037
    22.0   0.000E+00  9.801E+17  2.629E+17  6.030E-05   205.8  1037
    24.0   0.000E+00  7.030E+17  1.886E+17  4.325E-05   206.3  1037
    26.0   0.000E+00  5.019E+17  1.346E+17  3.088E-05   208.4  1037
    28.0   0.000E+00  3.576E+17  9.593E+16  2.200E-05   211.7  1037
    30.0   0.000E+00  2.548E+17  6.837E+16  1.568E-05   216.5  1037
    32.0   0.000E+00  1.820E+17  4.883E+16  1.120E-05   222.7  1037
    34.0   0.000E+00  1.307E+17  3.507E+16  8.042E-06   229.9  1037
    36.0   0.000E+00  9.483E+16  2.544E+16  5.834E-06   237.3  1037
    38.0   0.000E+00  6.956E+16  1.866E+16  4.280E-06   244.4  1037
    40.0   0.000E+00  5.161E+16  1.384E+16  3.175E-06   250.7  1037
    42.0   0.000E+00  3.874E+16  1.039E+16  2.383E-06   255.9  1037
    44.0   0.000E+00  2.942E+16  7.892E+15  1.810E-06   259.5  1037
    46.0   0.000E+00  2.258E+16  6.059E+15  1.390E-06   260.9  1037
    48.0   0.000E+00  1.749E+16  4.692E+15  1.076E-06   260.2  1037
    50.0   0.000E+00  1.361E+16  3.651E+15  8.373E-07   257.9  1037
    52.0   0.000E+00  1.060E+16  2.844E+15  6.523E-07   254.6  1037
    54.0   0.000E+00  8.248E+15  2.213E+15  5.075E-07   250.9  1037
    56.0   0.000E+00  6.392E+15  1.715E+15  3.933E-07   247.2  1037
    58.0   0.000E+00  4.931E+15  1.323E+15  3.034E-07   243.7  1037
    60.0   0.000E+00  3.787E+15  1.016E+15  2.330E-07   240.6  1037
    62.0   0.000E+00  2.895E+15  7.768E+14  1.781E-07   237.7  1037
    64.0   0.000E+00  2.205E+15  5.913E+14  1.356E-07   235.0  1037
    66.0   0.000E+00  1.673E+15  4.483E+14  1.029E-07   232.7  1037
    68.0   0.000E+00  1.264E+15  3.386E+14  7.775E-08   230.6  1037
    70.0   0.000E+00  9.524E+14  2.549E+14  5.856E-08   228.7  1037
    72.0   0.000E+00  7.152E+14  1.913E+14  4.397E-08   227.1  1037
    74.0   5.153E+07  5.373E+14  1.436E+14  3.303E-08   225.3  1037
    76.0   2.391E+08  4.042E+14  1.079E+14  2.484E-08   222.3  1037
    78.0   1.004E+09  3.041E+14  8.108E+13  1.868E-08   218.3  1037
    80.0   3.682E+09  2.281E+14  6.071E+13  1.400E-08   213.7  1037
    82.0   1.151E+10  1.702E+14  4.520E+13  1.045E-08   208.9  1037
    84.0   3.028E+10  1.262E+14  3.341E+13  7.739E-09   204.1  1037
    86.0   6.700E+10  9.284E+13  2.447E+13  5.688E-09   199.5  1037
    88.0   1.256E+11  6.770E+13  1.775E+13  4.144E-09   195.3  1037
    90.0   2.019E+11  4.893E+13  1.273E+13  2.993E-09   191.7  1037
    92.0   2.831E+11  3.504E+13  9.032E+12  2.142E-09   188.9  1037
    94.0   3.525E+11  2.486E+13  6.330E+12  1.519E-09   187.0  1037
    96.0   3.970E+11  1.749E+13  4.382E+12  1.069E-09   186.4  1037
    98.0   4.116E+11  1.221E+13  2.996E+12  7.458E-10   187.5  1037
   100.0   3.995E+11  8.467E+12  2.025E+12  5.173E-10   190.6  1037
   102.0   3.682E+11  5.849E+12  1.356E+12  3.573E-10   196.1  1037
   104.0   3.270E+11  4.040E+12  9.021E+11  2.468E-10   204.3  1037
   106.0   2.828E+11  2.802E+12  5.990E+11  1.711E-10   215.5  1037
   108.0   2.400E+11  1.956E+12  3.985E+11  1.195E-10   230.1  1037
   110.0   2.011E+11  1.377E+12  2.663E+11  8.417E-11   248.6  1037
   112.0   1.668E+11  9.803E+11  1.794E+11  5.996E-11   271.9  1037
   114.0   1.377E+11  7.069E+11  1.224E+11  4.330E-11   300.4  1037
   116.0   1.136E+11  5.180E+11  8.489E+10  3.180E-11   334.1  1037
   118.0   9.422E+10  3.873E+11  6.021E+10  2.384E-11   372.1  1037
   120.0   7.914E+10  2.971E+11  4.395E+10  1.835E-11   411.4  1037
   122.0   6.801E+10  2.356E+11  3.330E+10  1.460E-11   446.6  1037
   124.0   6.020E+10  1.940E+11  2.629E+10  1.207E-11   471.7   892
   126.0   5.374E+10  1.620E+11  2.114E+10  1.013E-11   494.5   892
   128.0   4.825E+10  1.368E+11  1.725E+10  8.592E-12   516.1   892
   130.0   4.355E+10  1.165E+11  1.425E+10  7.359E-12   536.5   892
   132.0   3.948E+10  1.001E+11  1.191E+10  6.356E-12   555.7   892
   134.0   3.595E+10  8.653E+10  1.005E+10  5.531E-12   573.9   892
   136.0   3.286E+10  7.530E+10  8.551E+09  4.844E-12   591.2   892
   138.0   3.014E+10  6.590E+10  7.332E+09  4.267E-12   607.4   892
   140.0   2.773E+10  5.796E+10  6.329E+09  3.779E-12   622.8   892
   142.0   2.560E+10  5.120E+10  5.495E+09  3.362E-12   637.4   892
   144.0   2.369E+10  4.542E+10  4.795E+09  3.004E-12   651.1   892
   146.0   2.199E+10  4.044E+10  4.204E+09  2.694E-12   664.1   892
   148.0   2.045E+10  3.612E+10  3.701E+09  2.425E-12   676.4   892
   150.0   1.907E+10  3.236E+10  3.269E+09  2.190E-12   688.0   892
   152.0   1.781E+10  2.908E+10  2.898E+09  1.983E-12   699.0   892
   154.0   1.667E+10  2.619E+10  2.576E+09  1.801E-12   709.4   892
   156.0   1.562E+10  2.365E+10  2.296E+09  1.640E-12   719.2   892
   158.0   1.467E+10  2.140E+10  2.052E+09  1.497E-12   728.5   892
   160.0   1.380E+10  1.940E+10  1.838E+09  1.369E-12   737.3   892
   162.0   1.299E+10  1.759E+10  1.649E+09  1.253E-12   745.6   892
   164.0   1.225E+10  1.601E+10  1.483E+09  1.151E-12   753.5   892
   166.0   1.156E+10  1.459E+10  1.335E+09  1.058E-12   760.9   892
   168.0   1.093E+10  1.332E+10  1.205E+09  9.752E-13   767.9   892
   170.0   1.034E+10  1.217E+10  1.088E+09  9.000E-13   774.6   892
   172.0   9.793E+09  1.114E+10  9.845E+08  8.317E-13   780.9   892
   174.0   9.282E+09  1.020E+10  8.918E+08  7.698E-13   786.8   892
   176.0   8.806E+09  9.359E+09  8.088E+08  7.133E-13   792.5   892
   178.0   8.361E+09  8.593E+09  7.343E+08  6.618E-13   797.8   892
   180.0   7.944E+09  7.897E+09  6.674E+08  6.147E-13   802.8   892
   182.0   7.553E+09  7.264E+09  6.072E+08  5.717E-13   807.6   892
   184.0   7.186E+09  6.688E+09  5.529E+08  5.322E-13   812.1   892
   186.0   6.841E+09  6.162E+09  5.039E+08  4.959E-13   816.4   892
   188.0   6.516E+09  5.681E+09  4.596E+08  4.625E-13   820.4   892
   190.0   6.211E+09  5.242E+09  4.195E+08  4.318E-13   824.2   892
   192.0   5.922E+09  4.840E+09  3.832E+08  4.035E-13   827.8   892
   194.0   5.649E+09  4.471E+09  3.503E+08  3.773E-13   831.2   892
   196.0   5.392E+09  4.133E+09  3.204E+08  3.531E-13   834.5   892
   198.0   5.148E+09  3.823E+09  2.932E+08  3.308E-13   837.5   892
   200.0   4.918E+09  3.538E+09  2.685E+08  3.100E-13   840.4   892
   202.0   4.699E+09  3.275E+09  2.461E+08  2.908E-13   843.2   892
   204.0   4.492E+09  3.034E+09  2.255E+08  2.729E-13   845.8   892
   206.0   4.295E+09  2.811E+09  2.068E+08  2.564E-13   848.2   892
   208.0   4.108E+09  2.606E+09  1.897E+08  2.409E-13   850.5   892
   210.0   3.930E+09  2.417E+09  1.741E+08  2.266E-13   852.7   892
   212.0   3.762E+09  2.243E+09  1.599E+08  2.132E-13   854.8   892
   214.0   3.601E+09  2.081E+09  1.469E+08  2.007E-13   856.8   892
   216.0   3.448E+09  1.932E+09  1.350E+08  1.891E-13   858.6   892
   218.0   3.302E+09  1.795E+09  1.241E+08  1.782E-13   860.4   892
   220.0   3.164E+09  1.667E+09  1.141E+08  1.680E-13   862.1   892
   222.0   3.031E+09  1.549E+09  1.049E+08  1.585E-13   863.7   892
   224.0   2.905E+09  1.440E+09  9.653E+07  1.497E-13   865.2   892
   226.0   2.785E+09  1.339E+09  8.884E+07  1.413E-13   866.6   892
   228.0   2.670E+09  1.245E+09  8.179E+07  1.335E-13   867.9   892
   230.0   2.560E+09  1.158E+09  7.531E+07  1.262E-13   869.2   892
   232.0   2.455E+09  1.077E+09  6.936E+07  1.194E-13   870.4   892
   234.0   2.355E+09  1.003E+09  6.390E+07  1.129E-13   871.5   892
   236.0   2.259E+09  9.332E+08  5.888E+07  1.069E-13   872.6   892
   238.0   2.168E+09  8.687E+08  5.426E+07  1.012E-13   873.6   892
   240.0   2.080E+09  8.089E+08  5.002E+07  9.584E-14   874.6   892
   242.0   1.996E+09  7.533E+08  4.612E+07  9.082E-14   875.5   892
   244.0   1.916E+09  7.017E+08  4.253E+07  8.609E-14   876.4   892
   246.0   1.840E+09  6.537E+08  3.923E+07  8.163E-14   877.2   892
   248.0   1.766E+09  6.091E+08  3.619E+07  7.744E-14   878.0   892
   250.0   1.696E+09  5.676E+08  3.339E+07  7.348E-14   878.7   892
   252.0   1.628E+09  5.290E+08  3.081E+07  6.976E-14   879.4   892
   254.0   1.564E+09  4.931E+08  2.844E+07  6.624E-14   880.1   892
   256.0   1.502E+09  4.597E+08  2.625E+07  6.292E-14   880.7   892
   258.0   1.443E+09  4.286E+08  2.423E+07  5.979E-14   881.3   892
   260.0   1.386E+09  3.997E+08  2.238E+07  5.683E-14   881.9   892
   262.0   1.331E+09  3.728E+08  2.066E+07  5.403E-14   882.4   892
   264.0   1.279E+09  3.477E+08  1.908E+07  5.139E-14   882.9   892
   266.0   1.229E+09  3.243E+08  1.763E+07  4.889E-14   883.4   892
   268.0   1.181E+09  3.026E+08  1.628E+07  4.653E-14   883.8   892
   270.0   1.135E+09  2.823E+08  1.504E+07  4.429E-14   884.3   892
   272.0   1.091E+09  2.634E+08  1.390E+07  4.217E-14   884.7   892
   274.0   1.048E+09  2.458E+08  1.285E+07  4.016E-14   885.1   892
   276.0   1.008E+09  2.294E+08  1.187E+07  3.826E-14   885.4   892
   278.0   9.686E+08  2.142E+08  1.097E+07  3.646E-14   885.8   892
   280.0   9.311E+08  1.999E+08  1.014E+07  3.476E-14   886.1   892
   282.0   8.951E+08  1.866E+08  9.377E+06  3.314E-14   886.4   892
   284.0   8.605E+08  1.742E+08  8.670E+06  3.160E-14   886.7   892
   286.0   8.273E+08  1.627E+08  8.016E+06  3.014E-14   887.0   892
   288.0   7.955E+08  1.519E+08  7.413E+06  2.876E-14   887.2   892
   290.0   7.649E+08  1.419E+08  6.855E+06  2.745E-14   887.5   892
   292.0   7.355E+08  1.325E+08  6.340E+06  2.620E-14   887.7   892
   294.0   7.073E+08  1.237E+08  5.864E+06  2.502E-14   887.9   892
   296.0   6.802E+08  1.156E+08  5.425E+06  2.389E-14   888.2   892
   298.0   6.541E+08  1.080E+08  5.018E+06  2.282E-14   888.4   892